*TYPE		=  Raw
*CLASS		=  ASCII CLASS
*SAMPLE		=  A56
*COMMENT	=   
*FNAME		=  A56_omega_ω.asc
*DATE		=  11-Jun-19 12:39

*GROUP_COUNT	=  1
*GONIO		=  SmartLab(In-plane), 0.000000
*ATTACHMENT	=  χφZクレードル
*ASC		=  0, 0, 0.000000, 0.000000
*I_MONOCHRO	=  Ge(220)x2, 0.000000
*FILTER		=  None
*C_MONOCHRO	=  No_unit, 0.000000
*SLIT_NAME	=  0, 入射スリット
*SLIT_NAME	=  1, 受光スリット1
*SLIT_NAME	=  2, 受光スリット2
*COUNTER	=  HyPix 3000(H), 0
*POS_FORMAT	=  0
*SCAN_AXIS	=  Omega
*MEAS_MODE	=  Continuous Scanning
*TARGET		=  29
*XRAY_CHAR	=  K-ALPHA1
*WAVE_LENGTH1	=  1.54059
*WAVE_LENGTH2	=  1.54441
*THICKNESS	=  0, 0.000000
*MU		=  0, 0.000000
*SCAN_MODE	=  Omega
*SPEED_DIM	=  sec./step
*XUNIT		=  deg.
*YUNIT		=  counts
*SCALE_MODE	=  1
*REP_COUNT	=  0
*SE_COUNT	=  0
*STD_MATERIAL	=  Unknown, Unknown, 0.000000, 0.000000, 0.000000, 0.000000, 0.000000, 0.000000
*LATT_CONS	=  0, Unknown, Unknown, 0.000000, 0.000000, 0.000000, 0.000000, 0.000000, 0.000000
*SEC_COUNT	=  1
*TSPEC_SIZE	=  0
*EXTRA_SIZE	=  0
*MEMO		=   

*BEGIN
*GROUP		=  0
*START		=  10.8355
*STOP		=  20.8355
*STEP		=  0.01
*OFFSET		=  31.671
*SPEED		=  0.196312
*SLIT_SPEC	=  0, 0.500mm, 0.5, 0.000000
*SLIT_SPEC	=  1, 0.500mm, 0.5, 0.000000
*SLIT_SPEC	=  2, 0.500mm, 0.5, 0.000000
*KV		=  45
*MA		=  200
*LOW		=  0.000000
*HIGH		=  0.000000
*CTEMPER	=  0, 0.000000
*CTEMPER	=  1, 0.000000
*CTEMPER	=  2, 0.000000
*PAREX		=  0, 0.000000
*PAREX		=  1, 0.000000
*PAREX		=  2, 0.000000
*PAREX		=  3, 0.000000
*PAREX		=  4, 0.000000
*PAREX		=  5, 0.000000
*PAREX		=  6, 0.000000
*PAREX		=  7, 0.000000
*PAREX		=  8, 0.000000
*PAREX		=  9, 0.000000
*PAREX		=  10, 0.000000
*PAREX		=  11, 0.000000
*PAREX		=  12, 0.000000
*PAREX		=  13, 0.000000
*PAREX		=  14, 0.000000
*PAREX		=  15, 0.000000
*FULL_SCALE	=  605813
*INDEX		=  0, 0, 0
*COUNT		=  1001
14.0043, 9.99218, 11.9815, 10.9716
12.0145, 13.1326, 11.9641, 11.9342
10.9837, 13.968, 11.0365, 18.0184
12.0745, 10.9798, 5.96386, 15.9847
7.90403, 8.00793, 18.0572, 18.014
12.98, 11.0424, 17.9964, 18.9233
11.0078, 15.8657, 11.8737, 9.91107
15.9477, 4.94703, 12.9281, 25.0426
16.5339, 11.0233, 20.4194, 10.9021
16.9509, 9.01386, 11.9235, 16.9483
16.8872, 12.9582, 12.9352, 18.9405
12.8926, 11.9063, 18.8901, 10.9265
10.9527, 5.00011, 16.9436, 9.90701
19.9922, 11.9654, 14.8542, 12.8899
8.08842, 15.0469, 6.95685, 19.8925
15.0044, 15.0206, 12.0006, 8.93476
15.0133, 14.95, 17.9074, 21.072
15.8458, 15.9697, 22.8971, 16.2904
8.9659, 18.0102, 16.856, 14.9873
9.89946, 15.9037, 14.9617, 9.89243
14.9076, 26.1395, 14.9056, 11.0283
15.9286, 10.8861, 11.9899, 8.97334
8.98211, 12.9574, 13.2809, 11.9218
19.0313, 15.9068, 10.925, 13.8896
20.9376, 12.8216, 13.9229, 18.8983
16.9189, 22.9998, 12.0228, 13.924
15.9735, 17.9009, 20.0394, 13.2693
17.9641, 13.9403, 23.0115, 25.0781
20.9224, 16.7754, 13.9999, 13.9717
16.8539, 18.945, 9.94427, 18.9287
15.9482, 6.95952, 10.0066, 13.9988
14.0175, 16.0021, 12.98, 18.389
15.9237, 18.8801, 16.8775, 17.9333
6.01553, 18.8632, 13.9371, 10.0097
21.0167, 18.9608, 18.8346, 19.2888
18.9497, 20.8684, 15.9863, 14.011
11.917, 16.9719, 15.0957, 18.9236
22.2085, 21.8061, 17.9221, 10.9787
14.938, 17.8857, 16.0502, 14.9879
23.1183, 15.9712, 17.9738, 21.927
16.9967, 16.8457, 20.9403, 24.811
14.9652, 30.9696, 23.8883, 10.9506
12.0005, 18.1168, 15.8443, 13.8312
21.9992, 23.8648, 27.8811, 25.0001
13.8762, 23.0522, 14.9428, 18.9623
14.9867, 11.9449, 12.8427, 14.9392
13.9542, 17.9139, 24.7931, 21.7848
11.9855, 17.0915, 20.8516, 15.0365
25.9002, 19.9377, 19.9315, 26.1443
33.7358, 18.0492, 29.1408, 21.9671
14.9226, 25.8408, 21.1252, 22.9481
21.9033, 24.0858, 23.9736, 31.8264
17.8757, 23.9476, 17.8088, 26.8605
20.8982, 26.0104, 21.9311, 23.9583
26.8201, 27.8503, 23.9643, 28.8248
12.859, 31.8923, 25.7933, 19.8373
29.8932, 30.9303, 25.791, 26.8341
23.8939, 25.9509, 25.3977, 21.8873
22.8738, 22.883, 14.0147, 25.9558
21.9382, 31.9039, 33.0312, 23.8483
26.0941, 33.6556, 21.8777, 28.9442
41.7848, 29.9821, 33.8596, 29.7152
16.9736, 31.0713, 19.874, 24.8614
31.8074, 37.8647, 25.258, 22.7808
28.1965, 23.9999, 19.9476, 27.0975
24.9016, 31.8803, 32.8426, 26.8857
31.8167, 28.9439, 36.8605, 28.9365
30.7723, 27.7959, 36.6317, 33.2254
36.8715, 32.9014, 38.5058, 24.0416
22.7944, 33.9339, 32.8104, 31.9677
28.8688, 27.8952, 21.9331, 26.9627
28.135, 25.935, 46.6845, 46.7481
31.8789, 29.7382, 33.8328, 36.7925
32.9071, 47.9624, 21.9226, 48.9434
31.9076, 43.8524, 33.9157, 40.7503
42.8455, 48.052, 36.9184, 34.7603
49.7334, 46.8544, 38.882, 46.0074
35.0849, 50.9491, 44.9028, 48.6658
51.8991, 31.9976, 45.6872, 41.9579
45.7106, 41.8164, 46.9097, 53.844
52.9248, 58.6512, 53.6871, 44.8118
45.9236, 46.802, 46.8129, 48.4286
57.8397, 57.9119, 49.8949, 57.8766
51.8377, 45.5819, 60.8, 73.8661
42.0178, 54.7809, 53.7885, 51.7444
58.0887, 49.9002, 55.6956, 62.8284
54.0415, 54.9451, 63.7506, 63.0271
60.6801, 76.7542, 68.035, 83.833
65.6631, 77.8945, 64.7124, 49.9637
66.9251, 66.8815, 68.5958, 73.6951
68.2533, 74.703, 56.0244, 83.515
71.5985, 82.7067, 97.865, 88.7102
95.6615, 76.6791, 94.5732, 77.7971
95.8321, 80.6515, 108.756, 97.7085
89.0649, 92.9676, 103.537, 109.902
115.533, 113.504, 114.416, 110.719
118.512, 121.614, 121.847, 137.345
134.415, 139.759, 172.301, 174.403
155.798, 191.415, 217.669, 259.121
332.605, 430.132, 651.507, 1314.63
2799.41, 2328.69, 2505.93, 1528.69
1068.82, 856.516, 664.931, 546.496
584.667, 767.081, 821.636, 819.621
866.359, 1164.6, 1447.58, 2258.31
4173.83, 7149.35, 5132.63, 2728.6
1895.3, 2122.92, 1191.58, 1045.68
1173.31, 1022.34, 1263.04, 2017.79
2087.35, 2653.86, 3807.5, 4868.37
6453.48, 12611.6, 8071.83, 4955.4
4801.37, 5718.76, 7197.44, 6732.26
5438.64, 4227.76, 5661.22, 4895.53
3495.22, 3876.26, 4720.12, 4771.22
5850.26, 8186.89, 5915.63, 4629.88
6550.53, 6491.31, 5664.96, 6000.38
6959.01, 11467.6, 12073.6, 9322.94
13854, 25567.4, 27777.8, 22946.3
11473.4, 8140.12, 11005.3, 12073.3
10628.3, 9393.79, 7570.57, 8440.61
12150, 13551.5, 14323.4, 13204.5
11511.1, 11284.2, 11592.5, 15659.4
21468.4, 15589.3, 9781.08, 10673.1
12880.8, 17348.4, 19504.8, 12545.7
10453.5, 11515, 17523.8, 32105.1
25519.1, 18159.2, 15972.9, 10318.5
11402.8, 12333.2, 11055.3, 17249.6
27396.7, 19572.1, 15226.5, 16369.5
13992.1, 12584.6, 11614.4, 13531
15559.4, 11618.3, 8200.54, 8810.52
10557.6, 10914.3, 13685.2, 17920.7
10108.8, 7510.22, 9051.26, 11218.1
9497.62, 8960.21, 9323.52, 7848.54
6540.84, 7230.62, 9421.04, 13096.5
17562.3, 17283.6, 14509.3, 15458.1
16246.2, 22440, 19714.4, 15955.4
17519.9, 20435.9, 31789.3, 30553.2
18456.6, 21360, 34602.3, 19673.3
10735.1, 9077.15, 9412.27, 11857.4
14334.9, 14939.9, 10624.3, 10373.7
13693.4, 19423.9, 12836.7, 9497.1
7707.75, 6358.46, 5565.64, 5549.93
8019.06, 13617.2, 18416.3, 14361.2
12431, 11661.4, 13768.2, 14709.8
10619.1, 15067.2, 19389.5, 21878.8
20276.4, 12233.5, 11837.6, 19357.2
12702, 6935.22, 5714.92, 6640
8783.12, 9940.91, 12666.4, 15307.7
7708.4, 5340.35, 5698.73, 10538
21765.1, 13100.5, 10008.2, 10174.4
5514.48, 4207.51, 5602.55, 5112.5
5125.79, 7853.4, 15649.6, 14061.8
11775, 9826.55, 11630.3, 10876.5
5161.81, 3051.38, 2580.54, 3760.03
4440.57, 2366.59, 1453.35, 1410.41
1565.46, 1149.91, 985.037, 1017.72
925.26, 949.197, 950.168, 939.765
918.092, 990.557, 1156.5, 1331.28
1557.55, 1856.69, 1942.91, 2163.83
2565.82, 2179.91, 2060.7, 2247.07
2862.85, 4562.95, 11352.3, 26122.8
38332.4, 32117.9, 16154.6, 7023.54
3977.14, 3533.59, 4087.29, 7334.9
14315.1, 17092.7, 12027.9, 5966.99
3317.92, 2953.89, 3504.24, 5899.41
7563.45, 4749.09, 3363.15, 5183.31
8956.27, 7894.17, 7590.28, 12037.9
17742.5, 18317.9, 9739.12, 5079.28
4459.88, 6910.93, 14605.9, 12406.4
4908.12, 3180.85, 3575.81, 4172.95
6887.42, 16291.1, 13948.8, 5758.37
5667.84, 7332.77, 9856.62, 21472.9
35442.6, 28156.2, 14129.9, 8809.8
9801.85, 14005.6, 7015.4, 3309.76
2432.81, 2106.75, 2171.38, 2711
2845.64, 2771.67, 3708.56, 4110.6
3442.35, 2281.01, 1969.77, 2354.53
3352.45, 4258.42, 4390.52, 4411.88
4487.76, 3478.95, 3317.73, 3823.08
3978.3, 5655.73, 8758.58, 9715.91
7607.59, 6172.11, 4664.94, 4541.15
6178.44, 8959.88, 9403.45, 10075.7
15564.3, 33399.2, 50432.2, 41554.6
37939.5, 30468.8, 13271.1, 10778.5
10583, 8836.45, 6808.11, 6538.32
8239.15, 8742.67, 11824.8, 18096
19348.7, 16191.1, 18300.9, 24984.8
37406, 27600.7, 16055.5, 12989.7
13615.6, 14798, 13408, 12243.3
20565.8, 21521.3, 16686.8, 13700.5
14370.6, 20510.1, 25866.5, 25198.3
29184.3, 31768.1, 37544, 40098.6
37930.1, 33083.4, 35899, 44274.5
37723.3, 30119.5, 30394.6, 42410.5
49682.1, 59507.5, 49795, 42614.2
32219, 37236.3, 59957.9, 58938.4
33853.1, 40971.3, 60229.3, 37824.9
37404.9, 60476.5, 72721.2, 49448.6
37203.1, 36771.1, 29880.6, 24728.3
33036, 50962.3, 70708.6, 84587.1
62560.4, 48986, 39357.3, 34396.2
32396.8, 28923.2, 25174.2, 30598.1
36596.1, 45385.7, 87259.3, 99106.8
61697.5, 57554.3, 61967.8, 56274.5
48169.8, 43313.9, 48729.3, 59159.6
67594.4, 61938.3, 58041.3, 51711.1
39706.3, 43257.3, 45808.3, 44265.2
61381.1, 50539.6, 39860.8, 45068.2
49228.2, 47524.7, 35051.2, 35976.5
50727.2, 64881.7, 58189.4, 73747.1
80663.1, 55234.5, 34457.9, 34635.6
34989.5, 45564.9, 33853.7, 25649.5
21883.2, 22567.5, 23753.9, 25261
34743.9, 53527.4, 91654.2, 90433.9
53671.8, 39161.4, 38023.9, 31644.7
36031, 45451.5, 38613.7, 28604.1
32136.7, 33907.5, 34772.6, 39158.1
55107.1, 46997.9, 25746.1, 19648.1
15549.4, 11925.3, 12327.2, 15752.3
25698.6, 28687.7, 20515, 18716.7
24473, 35323.1, 41514.3, 33591.7
25812.3, 22787.6, 32293, 27072.1
18057, 16196.4, 15330.3, 14524.4
17423.5, 20749, 16587.7, 18683.5
23465.3, 19098.3, 23153, 36266.3
59998.5, 43386.9, 26438.7, 15546
15121.5, 17760, 22376.3, 26383.1
28296.2, 32306.7, 46603.7, 51940.2
33982.4, 28702.5, 16967.8, 13756.2
14693, 13102.9, 13892, 14191.1
14592.7, 19145.8, 24086, 24235.1
25386.3, 26986.5, 26424.5, 19516.1
11406.6, 7763.6, 5691.07, 5150.17
5224.1, 5513.93, 5536.01, 5361.44
6113.32, 7355.19, 10595.2, 16712.7
24938.4, 25543.3, 18604.5, 13729.1
11732.9, 8058.69, 4913.52, 3495.15
3584.42, 4306.93, 7529.75, 9872.45
5202.83, 4888.1, 8127.74, 10724
10628.9, 7805.85, 5347.52, 3213.35
2330.28, 2658.09, 3255.19, 4333.65
4161.33, 3699.87, 3324.79, 3472.38
8215.28, 9526.62, 3605.93, 2717.62
4142.3, 6505.42, 6456.47, 4916.27
2830.21, 2200.79, 2553.81, 3863.41
4711.73, 4358.63, 3559.53, 3270.61
3733.36, 6372.73, 9921.91, 11479.6
10234.9, 6889.66, 4966.47, 4315.08
4413.53, 5389.93, 7201.92, 9238.71
10565.6, 11735.8, 14464.7, 16672
15776.1, 12667.1, 9076.89, 6130.37
5243.37, 4806.83, 4299.26, 3666.25
3623.57
*END

*EOF
