*TYPE		=  Raw
*CLASS		=  ASCII CLASS
*SAMPLE		=  A56
*COMMENT	=   
*FNAME		=  A56_omega_ω.asc
*DATE		=  13-Jun-19 17:08

*GROUP_COUNT	=  1
*GONIO		=  SmartLab(In-plane), 0.000000
*ATTACHMENT	=  χφZクレードル
*ASC		=  0, 0, 0.000000, 0.000000
*I_MONOCHRO	=  Ge(220)x2, 0.000000
*FILTER		=  None
*C_MONOCHRO	=  No_unit, 0.000000
*SLIT_NAME	=  0, 入射スリット
*SLIT_NAME	=  1, 受光スリット1
*SLIT_NAME	=  2, 受光スリット2
*COUNTER	=  HyPix 3000(H), 0
*POS_FORMAT	=  0
*SCAN_AXIS	=  Omega
*MEAS_MODE	=  Continuous Scanning
*TARGET		=  29
*XRAY_CHAR	=  K-ALPHA1
*WAVE_LENGTH1	=  1.54059
*WAVE_LENGTH2	=  1.54441
*THICKNESS	=  0, 0.000000
*MU		=  0, 0.000000
*SCAN_MODE	=  Omega
*SPEED_DIM	=  sec./step
*XUNIT		=  deg.
*YUNIT		=  counts
*SCALE_MODE	=  1
*REP_COUNT	=  0
*SE_COUNT	=  0
*STD_MATERIAL	=  Unknown, Unknown, 0.000000, 0.000000, 0.000000, 0.000000, 0.000000, 0.000000
*LATT_CONS	=  0, Unknown, Unknown, 0.000000, 0.000000, 0.000000, 0.000000, 0.000000, 0.000000
*SEC_COUNT	=  1
*TSPEC_SIZE	=  0
*EXTRA_SIZE	=  0
*MEMO		=   

*BEGIN
*GROUP		=  0
*START		=  28.1287
*STOP		=  38.1287
*STEP		=  0.01
*OFFSET		=  66.2574
*SPEED		=  0.196312
*SLIT_SPEC	=  0, 0.500mm, 0.5, 0.000000
*SLIT_SPEC	=  1, 0.500mm, 0.5, 0.000000
*SLIT_SPEC	=  2, 0.500mm, 0.5, 0.000000
*KV		=  45
*MA		=  200
*LOW		=  0.000000
*HIGH		=  0.000000
*CTEMPER	=  0, 0.000000
*CTEMPER	=  1, 0.000000
*CTEMPER	=  2, 0.000000
*PAREX		=  0, 0.000000
*PAREX		=  1, 0.000000
*PAREX		=  2, 0.000000
*PAREX		=  3, 0.000000
*PAREX		=  4, 0.000000
*PAREX		=  5, 0.000000
*PAREX		=  6, 0.000000
*PAREX		=  7, 0.000000
*PAREX		=  8, 0.000000
*PAREX		=  9, 0.000000
*PAREX		=  10, 0.000000
*PAREX		=  11, 0.000000
*PAREX		=  12, 0.000000
*PAREX		=  13, 0.000000
*PAREX		=  14, 0.000000
*PAREX		=  15, 0.000000
*FULL_SCALE	=  164927
*INDEX		=  0, 0, 0
*COUNT		=  1001
0.983507, 3.98699, 2.99932, 2.01876
2.99001, 2.00759, 1.97148, 1.98307
4.95288, 5.93398, 0.000000, 3.00967
5.02994, 3.00185, 2.01074, 3.97682
6.04227, 4.97649, 1.98078, 0.000000
1.95394, 6.12558, 2.9572, 1.93612
6.97193, 1.00162, 1.98697, 4.05494
4.97833, 1.98009, 1.00814, 2.99371
3.96104, 1.0068, 4.01118, 0.988732
1.9905, 0.99354, 3.95338, 5.94456
3.97112, 3.99049, 0.992862, 3.98289
3.00095, 4.9268, 5.32008, 1.00451
2.97742, 4.93353, 5.28427, 0.988455
4.01372, 6.99941, 1.99169, 7.01957
3.96599, 1.99146, 2.99423, 1.0166
1.97896, 4.9914, 2.98269, 0.978305
2.00956, 6.97164, 3.91011, 2.00717
3.01521, 4.00872, 1.00099, 6.00171
5.9534, 1.98742, 3.00889, 3.02391
1.99948, 1.96827, 2.97683, 3.95828
0.995809, 5.00427, 2.01219, 1.99069
2.02483, 1.95758, 5.03585, 5.02414
3.91644, 1.01545, 0.000000, 2.00224
1.14948, 4.00529, 3.99991, 1.01164
5.00272, 4.95521, 3.97337, 3.0003
0.988732, 4.0024, 4.05225, 2.99177
4.97182, 2.98894, 0.991992, 0.993737
2.9618, 5.97128, 4.97784, 1.99984
1.01139, 1.00139, 1.98325, 5.96114
3.96364, 1.00377, 3.97693, 3.00701
1.99744, 1.01147, 1.98482, 5.97536
2.95786, 5.97899, 3.99599, 2.96573
2.00957, 1.9915, 0.000000, 1.00138
4.99076, 6.03186, 3.03331, 5.96354
1.00168, 5.9528, 4.99643, 4.98617
4.95153, 3.98802, 4.93272, 4.97719
3.9771, 3.97413, 4.944, 3.95639
4.98301, 3.95294, 3.97417, 3.00929
2.98568, 3.00038, 2.98515, 3.96109
3.96534, 0.972942, 5.9694, 5.93095
3.01038, 3.9961, 3.95679, 4.00075
0.994791, 6.03414, 9.9249, 0.997094
5.98678, 7.95086, 4.98513, 4.00091
4.0077, 1.98578, 3.96867, 3.97949
0.983873, 2.99554, 7.93252, 2.9666
1.94053, 3.98316, 0.000000, 4.92141
6.01316, 1.0056, 3.04044, 3.00576
0.996982, 1.96424, 0.000000, 5.99641
5.04031, 1.97799, 4.95972, 1.98137
9.00189, 3.97896, 3.92433, 2.96798
3.02153, 5.98739, 9.94483, 5.97094
2.99393, 1.01296, 8.94875, 1.98786
5.01259, 2.99966, 6.9751, 0.000000
8.96339, 1.03269, 6.95973, 9.2588
4.01069, 4.04907, 2.94829, 5.24777
3.02175, 4.00745, 3.95816, 2.98783
3.95816, 5.00752, 2.94344, 6.94374
7.0016, 1.99241, 1.00122, 1.96492
3.00799, 3.98599, 1.98097, 1.00455
2.94169, 6.00891, 10.967, 2.98127
5.05396, 8.00768, 4.96446, 3.99778
3.95664, 4.97034, 3.97331, 3.93042
2.01683, 1.98688, 6.03047, 3.98564
6.29738, 4.97856, 5.00312, 3.02565
6.00229, 5.938, 5.00958, 6.00471
3.00198, 5.93762, 3.00793, 10.9181
7.95849, 2.9892, 8.89195, 8.01022
5.86895, 6.89154, 4.01076, 8.98323
5.01287, 5.95322, 6.00392, 5.9788
4.0174, 5.98256, 5.93122, 10.0366
4.00116, 3.02169, 6.95549, 6.34193
7.00134, 1.95559, 4.01564, 9.02723
4.96729, 5.99279, 5.00906, 9.90345
7.02635, 6.06487, 2.9749, 3.96845
2.97807, 3.01781, 8.95497, 6.03083
8.95235, 4.98465, 6.97063, 4.99277
4.94081, 2.9718, 3.98826, 10.9676
4.02972, 7.00323, 7.83621, 4.01344
6.98236, 5.95057, 3.98477, 5.96989
4.986, 4.00307, 5.98942, 1.96718
9.98437, 6.92115, 4.9448, 7.9591
0.981861, 7.97208, 4.02787, 7.0257
12.0462, 5.94801, 2.97894, 6.94458
3.99688, 5.98961, 6.96949, 7.92547
7.00406, 8.04914, 6.94245, 2.9515
5.97793, 2.93977, 8.99295, 5.95448
9.9098, 8.94265, 9.9062, 9.96783
8.95634, 6.99729, 8.98313, 7.99882
7.9543, 6.92905, 9.8952, 10.1181
9.98493, 6.97812, 7.04451, 6.00774
6.08683, 5.96275, 5.9816, 10.0046
10.0019, 9.01031, 8.93862, 11.1118
7.18164, 4.96071, 9.92777, 5.9161
8.99477, 10.9445, 6.96024, 9.99365
16.9158, 10.8728, 14.8844, 7.00994
13.9468, 7.96994, 5.00306, 10.9391
11.0289, 10.9877, 11.8807, 4.98556
14.9323, 8.99398, 7.98673, 7.99458
18.9612, 10.9636, 11.2705, 8.9919
8.95796, 13.9758, 18.8372, 11.9034
17.8973, 17.981, 10.8945, 20.0114
18.9436, 25.8152, 17.9566, 21.0707
10.9515, 22.935, 30.7531, 22.9149
20.9909, 37.7833, 46.904, 20.0404
16.8223, 24.8651, 19.9387, 15.972
19.8906, 28.22, 26.8832, 23.0496
25.9134, 14.9582, 34.6377, 29.8641
31.9586, 24.8951, 37.7005, 43.698
77.4946, 69.7619, 86.4711, 130.475
134.732, 115.251, 145.328, 162.171
211.043, 315.778, 892.758, 3378.68
6246.05, 6746.36, 2894.75, 929.334
272.616, 176.877, 147.194, 158.879
158.72, 166.481, 129.59, 208.035
361.475, 1484.75, 2328.64, 824.218
575.205, 1928.3, 6209.92, 4625.9
1698.56, 1041.44, 821.813, 1050.9
1359.15, 935.188, 1070, 1367.56
509.883, 352.794, 638.83, 581.776
500.162, 185.435, 175.294, 221.129
676.099, 1918.41, 1294.17, 604.961
368.255, 237.044, 342.213, 516.715
321.747, 278.096, 238.802, 302.831
367.939, 510.588, 1238.09, 1711.88
959.722, 836.652, 1006.87, 1268.49
901.915, 1282.74, 1486.43, 952.529
714.198, 723.347, 1015.58, 1741.96
2780.93, 2300.72, 2768.22, 3409.41
3916.87, 6536.2, 8697.33, 11135.8
12610.3, 8425.03, 5130.86, 3946.95
4075.65, 5489.29, 13398, 11563.7
5760.3, 4923.03, 15669.4, 12683.9
5347.34, 2522.34, 3060.38, 3548.83
7822.58, 8134.38, 4229.08, 3421.51
5888.68, 8196.51, 3559.02, 2063.34
1192.1, 904.11, 1254.99, 2105.24
1357.06, 1566.7, 2091.56, 2889.56
6137.75, 6064.43, 3957.36, 1943.89
1919.04, 3899.91, 8818.1, 10527.1
5932, 2818.88, 2816.46, 3560.27
4085.9, 2599.38, 1684.91, 1714.91
2982.67, 2708.86, 2231.66, 933.548
640.643, 788.039, 3032.99, 10568.7
4904.02, 1026.8, 713.189, 1327.46
4127.03, 2965.03, 1122.24, 802.419
2308.97, 4717.31, 1509.44, 838.136
1868.5, 4502.51, 2118.54, 489.55
396.544, 622.551, 668.289, 410.8
208.07, 184.871, 147.639, 143.388
98.593, 88.9451, 72.7015, 87.7864
103.784, 71.7377, 88.6149, 75.8475
74.0835, 80.9627, 65.7635, 70.5455
59.6555, 55.7666, 73.7315, 57.7836
56.8528, 57.977, 52.9521, 53.7073
76.7913, 79.8877, 91.6582, 124.474
188.786, 268.276, 156.931, 109.414
101.986, 107.755, 112.896, 185.971
333.539, 1667.73, 4647.75, 3721.01
1240.46, 412.201, 237.597, 242.719
765.797, 3549.18, 2655.72, 660.383
448.431, 2017.12, 3983.79, 1509.2
1543.3, 2731.94, 5011.42, 2732.62
647.944, 357.494, 437.343, 2338.55
2465.83, 538.421, 356.872, 539.051
1268.02, 6680.78, 14847.5, 3538.3
812.706, 1077.63, 1791.78, 3927.16
13629.9, 24209.5, 14308.3, 2875.89
965.284, 544.632, 821.995, 729.525
340.488, 461.08, 353.311, 294.507
375.695, 563.303, 519.999, 483.003
410.617, 359.957, 308.237, 317.267
299.895, 301.277, 517.253, 822.33
1415.06, 740.464, 237.82, 204.026
280.016, 328.201, 693.762, 1978.61
3864.43, 3932.53, 2304.41, 1656.97
1607.54, 1370.37, 1437.59, 2232.79
4995.81, 13262.7, 18472.5, 15921.6
18305.8, 9219.35, 1963.68, 1489.74
1744.85, 1734.7, 1932.41, 1856.92
1887.37, 1614.87, 2105.05, 4131.97
7749.77, 8093.47, 12992.4, 21411.2
18477.6, 6949.81, 3272.25, 1843.39
1667.21, 1645.77, 2432.05, 6177.71
4229.22, 3609.3, 4824.5, 3413.13
2559.45, 6455.88, 7986.89, 4105.3
3683.66, 5770.21, 11691.6, 14207.3
9681.26, 7333.09, 9233.04, 13287.2
6789.22, 8364.54, 5715.38, 2867.42
2757.36, 3917.79, 8830.06, 8227.68
2969.2, 2738.21, 3545.21, 10220.1
16158, 7825.19, 5458.99, 6589.95
9757, 9980.57, 4551.19, 8021.95
7924.86, 4238.83, 3115.88, 6338.75
13065.2, 15982.6, 26085.8, 26563.9
19045.2, 9840.78, 8101.16, 8398.03
6882.52, 5451.58, 6774.57, 6698.51
4440.01, 3753.07, 5320.73, 16128.2
26617.9, 16903.3, 15140.2, 17597.1
18374.8, 14082.8, 8171.52, 7951.05
19450.2, 26980.9, 9231, 4641.71
6220.91, 9161.21, 9932.81, 9061.35
7842.11, 8100.25, 6605.84, 5425.01
5390.91, 4303.62, 5686.99, 7538.36
5984.63, 5088.84, 4487.57, 7138.91
7460.99, 8597.54, 10821.6, 4150.54
2906.03, 3458.45, 3514.41, 3765.43
4710.58, 3674.45, 4279.35, 6992.56
17258.9, 18226.9, 15440.5, 14198
19916, 14815, 7933.35, 8376.44
10323.4, 16576.4, 12113.4, 11027.2
8906.36, 13269.5, 17984.5, 13998.8
5158.61, 2665.64, 2621.44, 3463.71
5079.31, 7750.72, 9269.98, 8714.31
5784.2, 5513.87, 8537.81, 8766.22
6171.84, 5167.45, 6319.06, 5946.77
6446.97, 5544.06, 3412.32, 1990.22
1813.28, 3004.86, 5512.46, 4313.69
2423.93, 2097.74, 4623.09, 13080.4
13777.4, 22732.1, 15613, 3789.35
2364.02, 3485.98, 5069.39, 6996.46
8851.8, 6646.44, 7669.05, 12266.6
14011.4, 10756.2, 10910.5, 7634.99
3481.85, 1972.17, 2033.26, 4194.34
4660.17, 2906.23, 3356.91, 3660.85
2289.82, 1614.9, 1594.64, 1005.43
514.365, 341.984, 401.549, 781.964
1582.22, 1806.39, 1268.96, 809.152
787.765, 830.099, 1477.29, 2953.86
4965.46, 8368.05, 7357.06, 6125.29
4494.25, 3814.46, 2157.29, 1038.69
561.227, 465.149, 414.674, 350.476
307.54, 333.554, 428.339, 771.986
1623.78, 2036.42, 1361.11, 627.354
340.469, 191.229, 196.61, 254.674
496.24, 1500.72, 2353.9, 1526.42
842.343, 853.292, 2368.63, 7023.32
3148.45, 533.681, 295.194, 230.521
238.786, 262.467, 333.317, 426.911
579.325, 626.224, 428.847, 317.011
248.341, 155.038, 123.458, 193.079
261.05, 362.757, 459.199, 477.276
334.103, 227.969, 219.66, 314.991
700.461, 708.986, 1165.84, 2102.05
1656.48, 443.461, 281.344, 208.386
166.606, 169.81, 150.919, 133.158
140.978, 507.348, 1188.78, 814.532
409.387, 190.662, 176.024, 225.621
188.901, 205.401, 262.001, 384.348
263.383, 153.583, 89.3462, 94.8553
115.624, 100.208, 53.8242, 36.8319
101.444
*END

*EOF
